Spectrometer
Copyright Â© Kvant 2011. All rights reserved.

Date: Wednesday, March 20, 2024 11:44:05 AM
Source image name: .bmp
Source image [pixels]: 1280 x 1024
Source image processed height [pixels]: 20
Source image processed [position pixel range]: 512 - 532

Spectrum range [nm]: 360.5 - 936.4

Chart Points:

Wave Length [nm]	Intensity [a.u.]

===START===
360.5	0.0
360.9	0.0
361.4	0.0
361.9	0.0
362.4	0.0
362.8	0.0
363.3	0.0
363.8	0.0
364.3	0.0
364.7	0.0
365.2	0.0
365.7	0.0
366.2	0.0
366.6	0.0
367.1	0.0
367.6	0.0
368.0	0.0
368.5	0.0
369.0	0.0
369.5	0.0
369.9	0.0
370.4	0.0
370.9	0.0
371.4	0.0
371.8	0.0
372.3	0.0
372.8	0.0
373.3	0.0
373.7	0.0
374.2	0.0
374.7	0.0
375.1	0.0
375.6	0.0
376.1	0.0
376.6	0.0
377.0	0.0
377.5	0.0
378.0	0.0
378.5	0.0
378.9	0.0
379.4	0.0
379.9	0.0
380.4	0.0
380.8	0.0
381.3	0.0
381.8	0.0
382.2	0.0
382.7	0.0
383.2	0.0
383.7	0.0
384.1	0.0
384.6	0.0
385.1	0.0
385.6	0.0
386.0	0.0
386.5	0.0
387.0	0.0
387.4	0.0
387.9	0.0
388.4	0.0
388.9	0.0
389.3	0.0
389.8	0.0
390.3	0.0
390.7	0.0
391.2	0.0
391.7	0.0
392.2	0.0
392.6	0.0
393.1	0.0
393.6	0.0
394.1	0.0
394.5	0.0
395.0	0.0
395.5	0.0
395.9	0.0
396.4	0.0
396.9	0.0
397.4	0.0
397.8	0.0
398.3	0.0
398.8	0.0
399.2	0.0
399.7	0.0
400.2	0.0
400.7	0.0
401.1	0.0
401.6	0.0
402.1	0.0
402.5	0.0
403.0	0.0
403.5	0.0
404.0	0.0
404.4	0.0
404.9	0.0
405.4	0.0
405.9	0.0
406.3	0.0
406.8	0.0
407.3	0.0
407.7	0.0
408.2	0.0
408.7	0.0
409.2	0.0
409.6	0.0
410.1	0.0
410.6	0.0
411.0	0.0
411.5	0.0
412.0	0.0
412.4	0.0
412.9	0.0
413.4	0.0
413.9	0.0
414.3	0.0
414.8	0.0
415.3	0.0
415.7	0.0
416.2	0.0
416.7	0.0
417.2	0.0
417.6	0.0
418.1	0.0
418.6	0.0
419.0	0.0
419.5	0.0
420.0	0.0
420.5	0.0
420.9	0.0
421.4	0.0
421.9	0.0
422.3	0.0
422.8	0.0
423.3	0.0
423.7	0.0
424.2	0.0
424.7	0.0
425.2	0.0
425.6	0.0
426.1	0.0
426.6	0.0
427.0	0.0
427.5	0.0
428.0	0.0
428.5	0.0
428.9	0.0
429.4	0.0
429.9	0.0
430.3	0.0
430.8	0.0
431.3	0.0
431.7	0.0
432.2	0.0
432.7	0.0
433.2	0.0
433.6	0.0
434.1	0.0
434.6	0.1
435.0	0.0
435.5	0.0
436.0	0.0
436.4	0.0
436.9	0.0
437.4	0.2
437.9	0.0
438.3	5.2
438.8	4.4
439.3	15.0
439.7	14.4
440.2	16.7
440.7	16.1
441.1	19.8
441.6	20.6
442.1	29.8
442.5	30.2
443.0	42.7
443.5	43.5
444.0	72.0
444.4	72.1
444.9	72.6
445.4	73.1
445.8	77.4
446.3	77.9
446.8	84.2
447.2	84.3
447.7	86.8
448.2	87.9
448.7	99.6
449.1	99.7
449.6	101.7
450.1	101.7
450.5	106.0
451.0	106.5
451.5	114.0
451.9	114.4
452.4	120.3
452.9	120.7
453.3	127.8
453.8	128.9
454.3	136.5
454.7	136.6
455.2	144.5
455.7	145.1
456.2	151.5
456.6	152.4
457.1	160.2
457.6	160.4
458.0	167.2
458.5	167.6
459.0	174.2
459.4	174.6
459.9	183.7
460.4	184.2
460.8	191.4
461.3	192.2
461.8	200.0
462.2	200.3
462.7	206.5
463.2	206.6
463.7	212.1
464.1	212.1
464.6	213.0
465.1	213.4
465.5	218.9
466.0	218.9
466.5	219.4
466.9	219.5
467.4	219.7
467.9	219.3
468.3	217.5
468.8	217.5
469.3	215.9
469.7	215.4
470.2	210.5
470.7	210.3
471.1	207.0
471.6	206.8
472.1	203.4
472.5	202.8
473.0	193.7
473.5	193.0
473.9	184.4
474.4	184.3
474.9	182.0
475.4	181.5
475.8	174.7
476.3	174.7
476.8	170.4
477.2	170.0
477.7	163.6
478.2	163.6
478.6	161.8
479.1	161.6
479.6	157.0
480.0	156.7
480.5	153.6
481.0	153.3
481.4	150.1
481.9	149.7
482.4	143.1
482.8	143.2
483.3	142.9
483.8	142.6
484.2	137.9
484.7	137.8
485.2	134.1
485.6	133.8
486.1	130.4
486.6	129.5
487.0	125.4
487.5	124.8
488.0	119.3
488.4	119.0
488.9	116.0
489.4	115.6
489.8	106.6
490.3	106.6
490.8	103.8
491.2	103.8
491.7	103.4
492.2	103.4
492.6	102.3
493.1	102.2
493.6	97.7
494.0	97.5
494.5	94.3
495.0	94.0
495.4	91.1
495.9	91.2
496.4	89.2
496.8	89.2
497.3	86.1
497.8	86.0
498.2	84.3
498.7	84.4
499.2	84.5
499.6	84.5
500.1	85.4
500.6	85.7
501.0	84.4
501.5	84.3
502.0	83.4
502.4	83.3
502.9	82.6
503.4	82.6
503.8	81.6
504.3	81.6
504.8	82.8
505.2	82.7
505.7	82.0
506.2	81.9
506.6	82.5
507.1	82.5
507.6	82.3
508.0	82.8
508.5	78.5
509.0	79.1
509.4	72.7
509.9	74.6
510.4	71.8
510.8	79.5
511.3	78.1
511.8	80.9
512.2	77.6
512.7	79.5
513.1	75.8
513.6	78.6
514.1	74.5
514.5	77.3
515.0	77.1
515.5	79.8
515.9	77.4
516.4	79.0
516.9	77.4
517.3	77.8
517.8	78.5
518.3	79.1
518.7	81.4
519.2	83.4
519.7	87.7
520.1	88.8
520.6	93.0
521.1	93.4
521.5	98.6
522.0	100.8
522.5	102.1
522.9	100.8
523.4	104.1
523.9	104.8
524.3	109.3
524.8	110.3
525.2	115.1
525.7	115.0
526.2	119.7
526.6	120.7
527.1	123.0
527.6	124.1
528.0	127.1
528.5	129.1
529.0	132.5
529.4	132.8
529.9	133.9
530.4	134.7
530.8	137.0
531.3	138.0
531.8	140.1
532.2	140.9
532.7	142.5
533.1	143.6
533.6	145.9
534.1	147.3
534.5	148.8
535.0	149.8
535.5	151.6
535.9	152.0
536.4	153.6
536.9	154.0
537.3	155.3
537.8	155.4
538.3	156.2
538.7	156.4
539.2	156.7
539.6	157.0
540.1	157.7
540.6	157.4
541.0	157.3
541.5	158.0
542.0	160.0
542.4	160.1
542.9	160.0
543.4	160.2
543.8	160.1
544.3	160.6
544.8	162.3
545.2	163.0
545.7	163.8
546.1	164.5
546.6	165.4
547.1	165.4
547.5	166.8
548.0	167.2
548.5	167.3
548.9	167.7
549.4	168.7
549.9	169.3
550.3	171.7
550.8	172.6
551.2	174.3
551.7	174.7
552.2	175.5
552.6	176.1
553.1	177.4
553.6	177.9
554.0	178.5
554.5	178.6
555.0	179.1
555.4	179.7
555.9	180.0
556.3	179.7
556.8	179.5
557.3	179.9
557.7	179.8
558.2	179.7
558.7	179.8
559.1	179.4
559.6	179.2
560.0	179.5
560.5	178.9
561.0	178.8
561.4	178.7
561.9	178.2
562.4	177.7
562.8	177.6
563.3	177.5
563.7	177.2
564.2	176.3
564.7	176.8
565.1	175.6
565.6	175.3
566.1	173.7
566.5	173.1
567.0	170.7
567.4	170.5
567.9	169.2
568.4	168.9
568.8	168.0
569.3	167.4
569.8	166.5
570.2	166.5
570.7	164.7
571.1	164.0
571.6	163.1
572.1	162.6
572.5	161.1
573.0	160.4
573.5	159.3
573.9	159.0
574.4	157.3
574.8	156.7
575.3	155.9
575.8	155.9
576.2	154.2
576.7	153.7
577.2	152.3
577.6	151.5
578.1	150.7
578.5	151.0
579.0	150.3
579.5	150.2
579.9	149.2
580.4	149.0
580.9	149.2
581.3	149.2
581.8	149.0
582.2	148.9
582.7	148.4
583.2	148.0
583.6	147.3
584.1	146.7
584.5	145.5
585.0	145.6
585.5	144.7
585.9	144.4
586.4	143.0
586.9	142.5
587.3	139.3
587.8	143.6
588.2	138.6
588.7	142.1
589.2	134.0
589.6	134.1
590.1	130.2
590.5	131.9
591.0	126.3
591.5	126.4
591.9	120.0
592.4	120.2
592.9	121.5
593.3	121.6
593.8	132.4
594.2	132.4
594.7	141.0
595.2	140.2
595.6	148.9
596.1	147.0
596.5	155.6
597.0	155.4
597.5	159.2
597.9	158.5
598.4	161.8
598.8	159.7
599.3	165.7
599.8	162.9
600.2	168.7
600.7	162.4
601.2	170.3
601.6	164.0
602.1	171.9
602.5	170.3
603.0	173.7
603.5	174.3
603.9	176.7
604.4	177.0
604.8	175.9
605.3	175.6
605.8	175.4
606.2	175.7
606.7	175.0
607.1	175.0
607.6	175.3
608.1	175.3
608.5	173.8
609.0	173.6
609.4	173.0
609.9	172.9
610.4	173.1
610.8	173.4
611.3	173.0
611.7	172.4
612.2	170.9
612.7	170.9
613.1	171.4
613.6	171.3
614.0	169.7
614.5	169.8
615.0	170.7
615.4	170.8
615.9	170.6
616.3	170.6
616.8	169.2
617.3	169.2
617.7	170.2
618.2	170.7
618.6	170.3
619.1	169.7
619.6	167.7
620.0	167.7
620.5	167.7
620.9	168.0
621.4	167.5
621.9	167.4
622.3	167.1
622.8	167.2
623.2	166.3
623.7	165.9
624.2	164.1
624.6	163.3
625.1	161.3
625.5	161.3
626.0	161.4
626.5	161.1
626.9	159.4
627.4	159.3
627.8	157.6
628.3	157.0
628.7	156.0
629.2	156.1
629.7	155.0
630.1	155.0
630.6	153.4
631.0	152.8
631.5	151.2
632.0	151.2
632.4	150.4
632.9	150.3
633.3	149.8
633.8	149.5
634.3	148.4
634.7	148.3
635.2	148.3
635.6	148.4
636.1	148.1
636.6	148.0
637.0	146.8
637.5	146.4
637.9	144.7
638.4	144.5
638.8	143.3
639.3	143.2
639.8	142.0
640.2	141.5
640.7	140.7
641.1	140.7
641.6	139.1
642.1	138.6
642.5	136.5
643.0	136.4
643.4	135.0
643.9	134.5
644.3	131.3
644.8	131.3
645.3	128.7
645.7	128.5
646.2	126.5
646.6	126.4
647.1	124.5
647.6	123.7
648.0	121.1
648.5	121.1
648.9	120.9
649.4	120.8
649.8	120.1
650.3	120.2
650.8	119.8
651.2	119.7
651.7	119.6
652.1	119.6
652.6	119.7
653.0	119.9
653.5	118.6
654.0	118.3
654.4	117.5
654.9	117.4
655.3	115.7
655.8	115.5
656.3	114.2
656.7	114.0
657.2	114.1
657.6	114.0
658.1	113.0
658.5	113.1
659.0	112.8
659.5	112.7
659.9	112.3
660.4	112.4
660.8	112.0
661.3	111.6
661.7	111.6
662.2	111.6
662.7	109.5
663.1	109.1
663.6	106.3
664.0	105.5
664.5	104.4
664.9	104.3
665.4	102.9
665.9	103.0
666.3	103.1
666.8	102.9
667.2	102.4
667.7	102.1
668.1	101.1
668.6	101.4
669.1	99.7
669.5	99.3
670.0	98.2
670.4	98.1
670.9	97.0
671.3	97.1
671.8	96.2
672.3	95.8
672.7	93.9
673.2	91.6
673.6	87.4
674.1	87.8
674.5	84.9
675.0	84.7
675.5	81.8
675.9	81.6
676.4	81.6
676.8	81.4
677.3	81.1
677.7	80.8
678.2	79.6
678.6	79.6
679.1	79.5
679.6	79.6
680.0	78.2
680.5	78.4
680.9	77.9
681.4	77.6
681.8	76.5
682.3	76.5
682.8	75.0
683.2	73.9
683.7	73.8
684.1	73.7
684.6	74.2
685.0	73.6
685.5	65.5
685.9	66.1
686.4	62.4
686.9	63.3
687.3	60.2
687.8	60.8
688.2	51.0
688.7	49.1
689.1	45.8
689.6	45.7
690.0	53.5
690.5	54.8
691.0	54.4
691.4	54.1
691.9	47.3
692.3	46.1
692.8	43.2
693.2	41.4
693.7	36.0
694.1	35.1
694.6	32.4
695.1	33.1
695.5	32.7
696.0	32.5
696.4	31.0
696.9	29.7
697.3	26.3
697.8	26.6
698.2	26.9
698.7	26.9
699.2	26.3
699.6	27.4
700.1	26.9
700.5	26.9
701.0	25.3
701.4	24.5
701.9	22.7
702.3	23.0
702.8	20.1
703.3	19.0
703.7	20.5
704.2	20.5
704.6	20.6
705.1	20.6
705.5	14.7
706.0	14.9
706.4	14.3
706.9	13.9
707.3	17.0
707.8	16.5
708.3	14.0
708.7	12.8
709.2	7.0
709.6	4.7
710.1	1.9
710.5	1.4
711.0	1.1
711.4	1.4
711.9	2.2
712.3	1.5
712.8	0.5
713.3	0.3
713.7	0.5
714.2	0.4
714.6	0.2
715.1	0.2
715.5	0.5
716.0	0.4
716.4	0.2
716.9	0.1
717.3	0.3
717.8	0.2
718.3	0.3
718.7	0.2
719.2	0.1
719.6	0.1
720.1	0.0
720.5	0.0
721.0	0.1
721.4	0.1
721.9	0.1
722.3	0.0
722.8	0.0
723.2	0.0
723.7	0.0
724.2	0.0
724.6	0.0
725.1	0.0
725.5	0.0
726.0	0.0
726.4	0.0
726.9	0.0
727.3	0.0
727.8	0.0
728.2	0.0
728.7	0.0
729.1	0.0
729.6	0.0
730.1	0.0
730.5	0.0
731.0	0.0
731.4	0.0
731.9	0.0
732.3	0.0
732.8	0.0
733.2	0.0
733.7	0.0
734.1	0.0
734.6	0.0
735.0	0.0
735.5	0.0
735.9	0.0
736.4	0.0
736.9	0.0
737.3	0.0
737.8	0.0
738.2	0.0
738.7	0.0
739.1	0.0
739.6	0.0
740.0	0.0
740.5	0.0
740.9	0.0
741.4	0.0
741.8	0.0
742.3	0.0
742.7	0.0
743.2	0.0
743.6	0.0
744.1	0.0
744.6	0.0
745.0	0.0
745.5	0.0
745.9	0.0
746.4	0.0
746.8	0.0
747.3	0.0
747.7	0.0
748.2	0.0
748.6	0.0
749.1	0.0
749.5	0.0
750.0	0.0
750.4	0.0
750.9	0.0
751.3	0.0
751.8	0.0
752.2	0.0
752.7	0.0
753.1	0.0
753.6	0.0
754.1	0.0
754.5	0.0
755.0	0.0
755.4	0.0
755.9	0.0
756.3	0.0
756.8	0.0
757.2	0.0
757.7	0.0
758.1	0.0
758.6	0.0
759.0	0.0
759.5	0.0
759.9	0.0
760.4	0.0
760.8	0.0
761.3	0.0
761.7	0.0
762.2	0.0
762.6	0.0
763.1	0.0
763.5	0.0
764.0	0.0
764.4	0.0
764.9	0.0
765.3	0.0
765.8	0.0
766.2	0.0
766.7	0.0
767.2	0.0
767.6	0.0
768.1	0.0
768.5	0.0
769.0	0.0
769.4	0.0
769.9	0.0
770.3	0.0
770.8	0.0
771.2	0.0
771.7	0.0
772.1	0.0
772.6	0.0
773.0	0.0
773.5	0.0
773.9	0.0
774.4	0.0
774.8	0.0
775.3	0.0
775.7	0.0
776.2	0.0
776.6	0.0
777.1	0.0
777.5	0.0
778.0	0.0
778.4	0.0
778.9	0.0
779.3	0.0
779.8	0.0
780.2	0.0
780.7	0.0
781.1	0.0
781.6	0.0
782.0	0.0
782.5	0.0
782.9	0.0
783.4	0.0
783.8	0.0
784.3	0.0
784.7	0.0
785.2	0.0
785.6	0.0
786.1	0.0
786.5	0.0
787.0	0.0
787.4	0.0
787.9	0.0
788.3	0.0
788.8	0.0
789.2	0.0
789.7	0.0
790.1	0.0
790.6	0.0
791.0	0.0
791.5	0.0
791.9	0.0
792.4	0.0
792.8	0.0
793.3	0.0
793.7	0.0
794.2	0.0
794.6	0.0
795.1	0.0
795.5	0.0
796.0	0.0
796.4	0.0
796.9	0.0
797.3	0.0
797.8	0.0
798.2	0.0
798.7	0.0
799.1	0.0
799.6	0.0
800.0	0.0
800.5	0.0
800.9	0.0
801.4	0.0
801.8	0.0
802.3	0.0
802.7	0.0
803.2	0.0
803.6	0.0
804.1	0.0
804.5	0.0
805.0	0.0
805.4	0.0
805.9	0.0
806.3	0.0
806.8	0.0
807.2	0.0
807.7	0.0
808.1	0.0
808.6	0.0
809.0	0.0
809.5	0.0
809.9	0.0
810.4	0.0
810.8	0.0
811.3	0.0
811.7	0.0
812.2	0.0
812.6	0.0
813.1	0.0
813.5	0.0
814.0	0.0
814.4	0.0
814.9	0.0
815.3	0.0
815.7	0.0
816.2	0.0
816.6	0.0
817.1	0.0
817.5	0.0
818.0	0.0
818.4	0.0
818.9	0.0
819.3	0.0
819.8	0.0
820.2	0.0
820.7	0.0
821.1	0.0
821.6	0.0
822.0	0.0
822.5	0.0
822.9	0.0
823.4	0.0
823.8	0.0
824.3	0.0
824.7	0.0
825.2	0.0
825.6	0.0
826.1	0.0
826.5	0.0
827.0	0.0
827.4	0.0
827.9	0.0
828.3	0.0
828.7	0.0
829.2	0.0
829.6	0.0
830.1	0.0
830.5	0.0
831.0	0.0
831.4	0.0
831.9	0.0
832.3	0.0
832.8	0.0
833.2	0.0
833.7	0.0
834.1	0.0
834.6	0.0
835.0	0.0
835.5	0.0
835.9	0.0
836.4	0.0
836.8	0.0
837.3	0.0
837.7	0.0
838.1	0.0
838.6	0.0
839.0	0.0
839.5	0.0
839.9	0.0
840.4	0.0
840.8	0.0
841.3	0.0
841.7	0.0
842.2	0.0
842.6	0.0
843.1	0.0
843.5	0.0
844.0	0.0
844.4	0.0
844.9	0.0
845.3	0.0
845.7	0.0
846.2	0.0
846.6	0.0
847.1	0.0
847.5	0.0
848.0	0.0
848.4	0.0
848.9	0.0
849.3	0.0
849.8	0.0
850.2	0.0
850.7	0.0
851.1	0.0
851.6	0.0
852.0	0.0
852.4	0.0
852.9	0.0
853.3	0.0
853.8	0.0
854.2	0.0
854.7	0.0
855.1	0.0
855.6	0.0
856.0	0.0
856.5	0.0
856.9	0.0
857.4	0.0
857.8	0.0
858.2	0.0
858.7	0.0
859.1	0.0
859.6	0.0
860.0	0.0
860.5	0.0
860.9	0.0
861.4	0.0
861.8	0.0
862.3	0.0
862.7	0.0
863.2	0.0
863.6	0.0
864.0	0.0
864.5	0.0
864.9	0.0
865.4	0.0
865.8	0.0
866.3	0.0
866.7	0.0
867.2	0.0
867.6	0.0
868.1	0.0
868.5	0.0
868.9	0.0
869.4	0.0
869.8	0.0
870.3	0.0
870.7	0.0
871.2	0.0
871.6	0.0
872.1	0.0
872.5	0.0
873.0	0.0
873.4	0.0
873.8	0.0
874.3	0.0
874.7	0.0
875.2	0.0
875.6	0.0
876.1	0.0
876.5	0.0
877.0	0.0
877.4	0.0
877.9	0.0
878.3	0.0
878.7	0.0
879.2	0.0
879.6	0.0
880.1	0.0
880.5	0.0
881.0	0.0
881.4	0.0
881.9	0.0
882.3	0.0
882.7	0.0
883.2	0.0
883.6	0.0
884.1	0.0
884.5	0.0
885.0	0.0
885.4	0.0
885.9	0.0
886.3	0.1
886.8	0.0
887.2	0.0
887.6	0.0
888.1	0.0
888.5	0.0
889.0	0.0
889.4	0.0
889.9	0.0
890.3	0.0
890.7	0.0
891.2	0.0
891.6	0.0
892.1	0.0
892.5	0.0
893.0	0.0
893.4	0.0
893.9	0.0
894.3	0.0
894.7	0.0
895.2	0.0
895.6	0.0
896.1	0.0
896.5	0.0
897.0	0.0
897.4	0.0
897.9	0.0
898.3	0.0
898.7	0.0
899.2	0.0
899.6	0.0
900.1	0.0
900.5	0.0
901.0	0.0
901.4	0.0
901.8	0.0
902.3	0.0
902.7	0.0
903.2	0.0
903.6	0.0
904.1	0.0
904.5	0.0
905.0	0.0
905.4	0.0
905.8	0.0
906.3	0.0
906.7	0.0
907.2	0.0
907.6	0.0
908.1	0.0
908.5	0.0
908.9	0.0
909.4	0.0
909.8	0.0
910.3	0.0
910.7	0.0
911.2	0.0
911.6	0.0
912.0	0.0
912.5	0.0
912.9	0.0
913.4	0.0
913.8	0.0
914.3	0.0
914.7	0.0
915.1	0.0
915.6	0.0
916.0	0.0
916.5	0.0
916.9	0.0
917.4	0.0
917.8	0.0
918.2	0.0
918.7	0.0
919.1	0.0
919.6	0.0
920.0	0.0
920.5	0.0
920.9	0.0
921.3	0.0
921.8	0.0
922.2	0.0
922.7	0.0
923.1	0.0
923.6	0.0
924.0	0.0
924.4	0.0
924.9	0.0
925.3	0.0
925.8	0.0
926.2	0.0
926.7	0.0
927.1	0.0
927.5	0.0
928.0	0.0
928.4	0.0
928.9	0.0
929.3	0.0
929.7	0.0
930.2	0.0
930.6	0.0
931.1	0.0
931.5	0.0
932.0	0.0
932.4	0.0
932.8	0.0
933.3	0.0
933.7	0.0
934.2	0.0
934.6	0.0
935.0	0.0
935.5	0.0
935.9	0.0
936.4	0.0
===END===
